# Average Spectral response curve for IRAC 5.8 micron subarray
# Wave     Spectral Response
# angstrom  electrons / photon 
47442.10	0.000066
47485.60	0.000068
47529.10	0.000072
47572.70	0.000072
47616.40	0.000043
47660.10	0.000020
47704.00	0.000025
47747.90	0.000024
47791.90	0.000018
47836.00	0.000027
47880.20	0.000045
47924.40	0.000052
47968.80	0.000051
48013.20	0.000049
48057.70	0.000045
48102.30	0.000039
48146.90	0.000043
48191.70	0.000060
48236.50	0.000086
48281.40	0.000123
48326.40	0.000166
48371.50	0.000238
48416.60	0.000358
48461.90	0.000555
48507.20	0.000825
48552.70	0.001168
48598.20	0.001620
48643.70	0.002236
48689.40	0.003040
48735.20	0.003938
48781.00	0.004911
48827.00	0.005965
48873.00	0.007170
48919.10	0.008635
48965.30	0.010480
49011.60	0.012800
49057.90	0.015640
49104.40	0.018840
49150.90	0.022160
49197.60	0.025380
49244.30	0.028350
49291.10	0.031120
49338.00	0.033880
49385.00	0.036880
49432.10	0.040240
49479.20	0.043930
49526.50	0.047760
49573.80	0.051520
49621.30	0.055050
49668.80	0.058270
49716.40	0.061270
49764.10	0.064000
49811.90	0.066540
49859.80	0.068880
49907.80	0.071010
49955.90	0.072750
50004.10	0.074240
50052.30	0.075510
50100.70	0.076620
50149.20	0.077680
50197.70	0.078810
50246.30	0.080020
50295.10	0.081250
50343.90	0.082590
50392.80	0.084120
50441.90	0.085930
50491.00	0.087860
50540.20	0.089830
50589.50	0.091720
50638.90	0.093520
50688.40	0.095090
50738.00	0.096510
50787.70	0.097730
50837.50	0.098730
50887.40	0.099560
50937.40	0.100200
50987.40	0.100800
51037.60	0.101100
51087.90	0.101400
51138.30	0.101600
51188.80	0.101700
51239.40	0.101700
51290.00	0.101700
51340.80	0.101700
51391.70	0.101800
51442.70	0.101900
51493.80	0.102100
51545.00	0.102500
51596.30	0.103000
51647.60	0.103700
51699.10	0.104500
51750.70	0.105400
51802.40	0.106400
51854.20	0.107400
51906.10	0.108400
51958.10	0.109200
52010.30	0.109900
52062.50	0.110300
52114.80	0.110500
52167.20	0.110400
52219.80	0.110100
52272.40	0.109500
52325.20	0.108700
52378.00	0.107800
52431.00	0.107000
52484.00	0.106300
52537.20	0.105800
52590.50	0.105700
52643.90	0.105900
52697.40	0.106500
52751.00	0.107400
52804.70	0.108500
52858.50	0.109800
52912.50	0.111300
52966.50	0.112800
53020.70	0.114000
53075.00	0.115100
53129.30	0.116100
53183.80	0.117100
53238.40	0.117900
53293.10	0.118600
53348.00	0.119300
53402.90	0.119900
53458.00	0.120300
53513.10	0.120500
53568.40	0.120600
53623.80	0.120600
53679.30	0.120500
53735.00	0.120400
53790.70	0.120100
53846.60	0.119900
53902.50	0.119600
53958.60	0.119300
54014.80	0.119000
54071.10	0.118700
54127.60	0.118500
54184.20	0.118400
54240.80	0.118400
54297.60	0.118500
54354.50	0.118600
54411.60	0.118700
54468.70	0.119000
54526.00	0.119200
54583.40	0.119300
54640.90	0.119400
54698.60	0.119300
54756.30	0.119200
54814.20	0.119200
54872.20	0.119300
54930.30	0.119600
54988.60	0.120200
55047.00	0.120900
55105.50	0.121800
55164.10	0.122800
55222.80	0.123900
55281.70	0.124900
55340.70	0.125700
55399.80	0.126300
55459.10	0.126600
55518.40	0.126800
55578.00	0.126600
55637.60	0.126400
55697.30	0.126100
55757.20	0.125900
55817.30	0.125700
55877.40	0.125600
55937.70	0.125700
55998.10	0.126200
56058.60	0.126800
56119.30	0.127600
56180.10	0.128400
56241.00	0.129400
56302.10	0.130300
56363.30	0.131000
56424.60	0.131500
56486.10	0.131700
56547.70	0.131700
56609.40	0.131600
56671.30	0.131300
56733.30	0.131300
56795.40	0.131400
56857.70	0.131700
56920.10	0.132400
56982.70	0.133200
57045.40	0.134100
57108.20	0.135000
57171.10	0.135700
57234.30	0.136100
57297.50	0.136100
57360.90	0.135600
57424.40	0.134800
57488.10	0.133800
57551.90	0.132900
57615.80	0.132200
57679.90	0.132000
57744.10	0.132100
57808.50	0.132600
57873.00	0.133500
57937.70	0.134500
58002.50	0.135600
58067.40	0.136600
58132.50	0.137400
58197.80	0.138000
58263.20	0.138200
58328.70	0.138200
58394.40	0.137900
58460.20	0.137600
58526.20	0.137400
58592.40	0.137500
58658.60	0.137700
58725.10	0.137900
58791.60	0.138400
58858.40	0.138800
58925.30	0.139300
58992.30	0.139800
59059.50	0.140200
59126.80	0.140700
59194.30	0.141100
59262.00	0.141500
59329.80	0.141900
59397.70	0.142100
59465.90	0.142100
59534.10	0.142100
59602.60	0.141800
59671.20	0.141400
59739.90	0.141000
59808.80	0.140500
59877.90	0.140200
59947.10	0.140200
60016.50	0.140300
60086.00	0.140600
60155.70	0.141000
60225.60	0.141500
60295.60	0.141800
60365.80	0.141900
60436.20	0.141800
60506.70	0.141400
60577.40	0.140600
60648.20	0.139800
60719.20	0.138900
60790.40	0.138000
60861.80	0.137100
60933.30	0.136300
61005.00	0.135600
61076.80	0.135000
61148.90	0.134500
61221.10	0.134100
61293.40	0.133900
61366.00	0.133700
61438.70	0.133500
61511.50	0.133300
61584.60	0.132900
61657.80	0.132300
61731.20	0.131200
61804.80	0.130000
61878.60	0.128500
61952.50	0.126900
62026.60	0.125600
62100.90	0.124500
62175.30	0.123600
62250.00	0.123200
62324.80	0.123300
62399.80	0.123800
62475.00	0.124400
62550.30	0.124700
62625.90	0.124700
62701.60	0.124300
62777.50	0.123400
62853.60	0.122400
62929.90	0.121200
63006.40	0.119700
63083.00	0.117300
63159.80	0.113700
63236.90	0.108700
63314.10	0.102900
63391.50	0.096660
63469.10	0.090640
63546.90	0.085060
63624.80	0.079650
63703.00	0.074100
63781.30	0.068480
63859.90	0.062920
63938.60	0.057280
64017.60	0.050920
64096.70	0.043840
64176.00	0.036400
64255.60	0.029220
64335.30	0.022570
64415.20	0.016550
64495.30	0.011420
64575.60	0.007404
64656.10	0.004564
64736.90	0.002706
64817.80	0.001537
64898.90	0.000780
64980.20	0.000308
65061.80	0.000089
65143.50	0.000043
65225.40	0.000006
65307.60	0.000000
65390.00	0.000038
65472.50	0.000049
65555.30	0.000041
65638.30	0.000030
65721.50	0.000023
65804.90	0.000000
65888.50	0.000012
65972.30	0.000013
66056.30	0.000008
66140.60	0.000018
66225.10	0.000045
