# Average Spectral response curve for IRAC 80 micron subarray
# Wave     Spectral Response
# angstrom  electrons / photon 
61511.50	0.000142
61584.60	0.000179
61657.80	0.000216
61731.20	0.000214
61804.80	0.000198
61878.60	0.000192
61952.50	0.000163
62026.60	0.000111
62100.90	0.000093
62175.30	0.000099
62250.00	0.000118
62324.80	0.000117
62399.80	0.000112
62475.00	0.000131
62550.30	0.000152
62625.90	0.000139
62701.60	0.000151
62777.50	0.000086
62853.60	0.000001
62929.90	0.000001
63006.40	0.000000
63083.00	0.000046
63159.80	0.000447
63236.90	0.001124
63314.10	0.002205
63391.50	0.003891
63469.10	0.006400
63546.90	0.009935
63624.80	0.014360
63703.00	0.019830
63781.30	0.026430
63859.90	0.034180
63938.60	0.042980
64017.60	0.052680
64096.70	0.063560
64176.00	0.076180
64255.60	0.090560
64335.30	0.106100
64415.20	0.121300
64495.30	0.134400
64575.60	0.144900
64656.10	0.154400
64736.90	0.164400
64817.80	0.174400
64898.90	0.183400
64980.20	0.191400
65061.80	0.198000
65143.50	0.203900
65225.40	0.210400
65307.60	0.217400
65390.00	0.224100
65472.50	0.229400
65555.30	0.233200
65638.30	0.236000
65721.50	0.238800
65804.90	0.241600
65888.50	0.243800
65972.30	0.244800
66056.30	0.244800
66140.60	0.244500
66225.10	0.244600
66309.80	0.245400
66394.70	0.246100
66479.80	0.245300
66565.10	0.243100
66650.70	0.240200
66736.50	0.237800
66822.50	0.237100
66908.70	0.238100
66995.10	0.240200
67081.80	0.242300
67168.70	0.243900
67255.80	0.244800
67343.20	0.245500
67430.70	0.246500
67518.50	0.248200
67606.60	0.250600
67694.80	0.252800
67783.30	0.254100
67872.00	0.254700
67961.00	0.255000
68050.20	0.255600
68139.60	0.257100
68229.30	0.259300
68319.10	0.261500
68409.30	0.263200
68499.60	0.264300
68590.30	0.264700
68681.10	0.264600
68772.20	0.264300
68863.50	0.264100
68955.10	0.263700
69046.90	0.263400
69139.00	0.263300
69231.30	0.263300
69323.80	0.263300
69416.60	0.263300
69509.70	0.263000
69603.00	0.262600
69696.50	0.262000
69790.40	0.260800
69884.40	0.259300
69978.70	0.258300
70073.30	0.257500
70168.10	0.257000
70263.20	0.256500
70358.50	0.255900
70454.10	0.255100
70550.00	0.254100
70646.10	0.253100
70742.50	0.252300
70839.10	0.252400
70936.00	0.253500
71033.20	0.255200
71130.60	0.256500
71228.30	0.257300
71326.30	0.257900
71424.60	0.258000
71523.10	0.257700
71621.90	0.257500
71720.90	0.257800
71820.30	0.258000
71919.90	0.258200
72019.80	0.258400
72119.90	0.258500
72220.40	0.259200
72321.10	0.260700
72422.10	0.262600
72523.40	0.264600
72625.00	0.266800
72726.80	0.268000
72829.00	0.268400
72931.40	0.268300
73034.10	0.267700
73137.10	0.267000
73240.40	0.266700
73344.00	0.267200
73447.90	0.268500
73552.10	0.270400
73656.60	0.272700
73761.40	0.275100
73866.40	0.277200
73971.80	0.278600
74077.50	0.279000
74183.50	0.278300
74289.70	0.277300
74396.30	0.276200
74503.20	0.275600
74610.40	0.275700
74717.90	0.276500
74825.70	0.278400
74933.90	0.280900
75042.30	0.283500
75151.10	0.286200
75260.10	0.288800
75369.50	0.291200
75479.20	0.293900
75589.30	0.296800
75699.60	0.299600
75810.30	0.302000
75921.30	0.303400
76032.60	0.303700
76144.20	0.303500
76256.20	0.303200
76368.50	0.303100
76481.20	0.303600
76594.10	0.304600
76707.40	0.305600
76821.10	0.306600
76935.10	0.307300
77049.40	0.307700
77164.00	0.307900
77279.00	0.308100
77394.40	0.308600
77510.10	0.309100
77626.10	0.309400
77742.50	0.309600
77859.20	0.309600
77976.30	0.309500
78093.70	0.309700
78211.50	0.310200
78329.70	0.311200
78448.20	0.312500
78567.00	0.314000
78686.20	0.315700
78805.80	0.317100
78925.80	0.318400
79046.10	0.319500
79166.80	0.320000
79287.80	0.319800
79409.20	0.319500
79531.00	0.318800
79653.20	0.318000
79775.70	0.317600
79898.70	0.317300
80022.00	0.317700
80145.60	0.318800
80269.70	0.320200
80394.20	0.321500
80519.00	0.322900
80644.20	0.324300
80769.80	0.325900
80895.80	0.327400
81022.20	0.328800
81149.00	0.330000
81276.20	0.330900
81403.80	0.331400
81531.80	0.331300
81660.20	0.330700
81789.00	0.330200
81918.20	0.330000
82047.80	0.330100
82177.90	0.330500
82308.30	0.330900
82439.20	0.331500
82570.40	0.332200
82702.10	0.333000
82834.20	0.333600
82966.80	0.334100
83099.70	0.334700
83233.10	0.335000
83366.90	0.334700
83501.20	0.334000
83635.90	0.333100
83771.00	0.332300
83906.50	0.331400
84042.50	0.330800
84178.90	0.330900
84315.80	0.331300
84453.10	0.331800
84590.90	0.332400
84729.10	0.332900
84867.80	0.333200
85006.90	0.333200
85146.50	0.333000
85286.60	0.333000
85427.10	0.332700
85568.00	0.332200
85709.50	0.332000
85851.40	0.331800
85993.80	0.331700
86136.60	0.331800
86279.90	0.331800
86423.70	0.331300
86568.00	0.330100
86712.80	0.327700
86858.00	0.324600
87003.70	0.321100
87150.00	0.317600
87296.70	0.314400
87443.90	0.312000
87591.60	0.310400
87739.80	0.310200
87888.50	0.311200
88037.70	0.312800
88187.50	0.314300
88337.70	0.315400
88488.50	0.315500
88639.70	0.314100
88791.50	0.311900
88943.80	0.309500
89096.60	0.307100
89250.00	0.305100
89403.80	0.303600
89558.30	0.302400
89713.20	0.301300
89868.70	0.300400
90024.70	0.299500
90181.30	0.298100
90338.40	0.296400
90496.00	0.294600
90654.30	0.292800
90813.00	0.291100
90972.30	0.289100
91132.20	0.286800
91292.70	0.284000
91453.70	0.280400
91615.20	0.276300
91777.40	0.271000
91940.10	0.264400
92103.40	0.256800
92267.30	0.247400
92431.80	0.236500
92596.80	0.224300
92762.50	0.211400
92928.70	0.198500
93095.60	0.186300
93263.00	0.173700
93431.00	0.160900
93599.70	0.147600
93769.00	0.134300
93938.80	0.120700
94109.30	0.106900
94280.40	0.092870
94452.20	0.078940
94624.50	0.065530
94797.50	0.053350
94971.10	0.042390
95145.40	0.032750
95320.30	0.024440
95495.80	0.017580
95672.00	0.012250
95848.90	0.008368
96026.40	0.005717
96204.50	0.003927
96383.30	0.002708
96562.80	0.001860
96743.00	0.001215
96923.80	0.000739
97105.30	0.000415
97287.50	0.000211
97470.40	0.000120
97653.90	0.000120
97838.20	0.000159
98023.10	0.000115
98208.80	0.000078
98395.10	0.000173
98582.20	0.000243
98770.00	0.000290
98958.50	0.000359
99147.70	0.000396
99337.60	0.000407
99528.30	0.000362
99719.70	0.000301
99911.80	0.000306
100105.00	0.000314
100298.00	0.000286
100493.00	0.000286
100688.00	0.000344
100884.00	0.000379
101080.00	0.000349
101278.00	0.000282
101476.00	0.000254
101675.00	0.000330
101875.00	0.000373
102075.00	0.000328
102277.00	0.000238
102479.00	0.000163
102682.00	0.000215
102885.00	0.000298
103090.00	0.000293
103295.00	0.000233
103501.00	0.000235
103708.00	0.000311
103916.00	0.000350
104125.00	0.000378
104334.00	0.000407
104545.00	0.000383
104756.00	0.000295
104968.00	0.000192
